# Keck LRIS spectra of late-M, L and T dwarfs
# spty = M9  (Spectral type)
#
#     WAVELENGTH	#           FLUX	
#     (ANGSTROM)	#  (ERG/CM2/S/A)	
################	################	
      6300.00000	     4.25501e-18	
      6301.89845	     3.86358e-18	
      6303.79690	     4.40656e-18	
      6305.69535	     6.64627e-18	
      6307.59380	     3.59965e-18	
      6309.49225	     2.09975e-18	
      6311.39070	     3.56018e-18	
      6313.28914	     2.07532e-18	
      6315.18759	     2.48823e-18	
      6317.08604	     2.80617e-18	
      6318.98449	     3.08483e-18	
      6320.88294	     3.16199e-18	
      6322.78139	     3.59530e-18	
      6324.67984	     2.80264e-18	
      6326.57829	     2.30300e-18	
      6328.47674	     2.54286e-18	
      6330.37519	     2.32346e-18	
      6332.27364	     2.97406e-18	
      6334.17209	     3.39638e-18	
      6336.07054	     4.57492e-18	
      6337.96898	     3.99886e-18	
      6339.86743	     2.56572e-18	
      6341.76588	     2.66500e-18	
      6343.66433	     3.30074e-18	
      6345.56278	     3.58987e-18	
      6347.46123	     2.56579e-18	
      6349.35968	     3.50019e-18	
      6351.25813	     3.99988e-18	
      6353.15658	     2.87659e-18	
      6355.05503	     3.01588e-18	
      6356.95348	     3.54724e-18	
      6358.85193	     3.31667e-18	
      6360.75038	     3.80095e-18	
      6362.64882	     3.06196e-18	
      6364.54727	     5.08262e-18	
      6366.44572	     3.98273e-18	
      6368.34417	     2.44941e-18	
      6370.24262	     3.61825e-18	
      6372.14107	     4.39953e-18	
      6374.03952	     4.47070e-18	
      6375.93797	     3.77566e-18	
      6377.83642	     3.19159e-18	
      6379.73487	     2.96229e-18	
      6381.63332	     2.40993e-18	
      6383.53177	     3.21974e-18	
      6385.43022	     3.48048e-18	
      6387.32866	     4.94504e-18	
      6389.22711	     3.46836e-18	
      6391.12556	     2.36833e-18	
      6393.02401	     4.16408e-18	
      6394.92246	     4.23358e-18	
      6396.82091	     2.71298e-18	
      6398.71936	     3.92672e-18	
      6400.61781	     3.19781e-18	
      6402.51626	     3.53657e-18	
      6404.41471	     4.17429e-18	
      6406.31316	     3.91083e-18	
      6408.21161	     3.60670e-18	
      6410.11006	     3.60096e-18	
      6412.00850	     2.73445e-18	
      6413.90695	     3.22761e-18	
      6415.80540	     4.37782e-18	
      6417.70385	     3.54760e-18	
      6419.60230	     2.70664e-18	
      6421.50075	     3.25948e-18	
      6423.39920	     4.58730e-18	
      6425.29765	     3.21274e-18	
      6427.19610	     2.47776e-18	
      6429.09455	     3.54509e-18	
      6430.99300	     3.99764e-18	
      6432.89145	     2.84403e-18	
      6434.78989	     2.25882e-18	
      6436.68834	     3.42698e-18	
      6438.58679	     4.35049e-18	
      6440.48524	     4.04119e-18	
      6442.38369	     3.11144e-18	
      6444.28214	     3.15670e-18	
      6446.18059	     3.56534e-18	
      6448.07904	     3.32368e-18	
      6449.97749	     5.18044e-18	
      6451.87594	     4.42857e-18	
      6453.77439	     2.50990e-18	
      6455.67284	     3.45984e-18	
      6457.57129	     3.97548e-18	
      6459.46973	     3.36101e-18	
      6461.36818	     3.41183e-18	
      6463.26663	     2.63642e-18	
      6465.16508	     4.14172e-18	
      6467.06353	     3.89424e-18	
      6468.96198	     3.48653e-18	
      6470.86043	     3.66667e-18	
      6472.75888	     3.75531e-18	
      6474.65733	     3.44816e-18	
      6476.55578	     4.52991e-18	
      6478.45423	     3.33807e-18	
      6480.35268	     3.15962e-18	
      6482.25113	     3.32252e-18	
      6484.14957	     3.04585e-18	
      6486.04802	     4.31436e-18	
      6487.94647	     3.57668e-18	
      6489.84492	     2.76630e-18	
      6491.74337	     4.07630e-18	
      6493.64182	     4.12322e-18	
      6495.54027	     3.63455e-18	
      6497.43872	     3.35428e-18	
      6499.33717	     3.70150e-18	
      6501.23562	     4.00720e-18	
      6503.13407	     3.73601e-18	
      6505.03252	     3.55326e-18	
      6506.93097	     4.50993e-18	
      6508.82941	     3.31302e-18	
      6510.72786	     3.86295e-18	
      6512.62631	     5.60015e-18	
      6514.52476	     4.90577e-18	
      6516.42321	     5.17347e-18	
      6518.32166	     4.69081e-18	
      6520.22011	     5.07349e-18	
      6522.11856	     5.04424e-18	
      6524.01701	     5.00625e-18	
      6525.91546	     6.00946e-18	
      6527.81391	     5.51632e-18	
      6529.71236	     6.08128e-18	
      6531.61081	     5.79691e-18	
      6533.50925	     6.59330e-18	
      6535.40770	     6.09283e-18	
      6537.30615	     6.55886e-18	
      6539.20460	     7.33000e-18	
      6541.10305	     6.67372e-18	
      6543.00150	     6.40670e-18	
      6544.89995	     5.69253e-18	
      6546.79840	     4.93698e-18	
      6548.69685	     5.65232e-18	
      6550.59530	     5.70968e-18	
      6552.49375	     6.43620e-18	
      6554.39220	     6.52039e-18	
      6556.29065	     6.44195e-18	
      6558.18909	     8.68883e-18	
      6560.08754	     8.53118e-18	
      6561.98599	     9.69990e-18	
      6563.88444	     1.27380e-17	
      6565.78289	     1.36614e-17	
      6567.68134	     9.24261e-18	
      6569.57979	     6.49403e-18	
      6571.47824	     4.74774e-18	
      6573.37669	     4.39117e-18	
      6575.27514	     4.95740e-18	
      6577.17359	     4.48267e-18	
      6579.07204	     4.25571e-18	
      6580.97049	     4.17602e-18	
      6582.86893	     4.61130e-18	
      6584.76738	     4.65658e-18	
      6586.66583	     4.67397e-18	
      6588.56428	     4.77291e-18	
      6590.46273	     5.14982e-18	
      6592.36118	     5.22178e-18	
      6594.25963	     5.19098e-18	
      6596.15808	     5.67336e-18	
      6598.05653	     4.99588e-18	
      6599.95498	     5.17485e-18	
      6601.85343	     4.61486e-18	
      6603.75188	     4.52083e-18	
      6605.65033	     3.90769e-18	
      6607.54877	     4.36582e-18	
      6609.44722	     5.55201e-18	
      6611.34567	     4.44355e-18	
      6613.24412	     5.36395e-18	
      6615.14257	     4.81019e-18	
      6617.04102	     4.69857e-18	
      6618.93947	     4.05986e-18	
      6620.83792	     4.37887e-18	
      6622.73637	     5.36235e-18	
      6624.63482	     4.47655e-18	
      6626.53327	     3.73878e-18	
      6628.43172	     3.87407e-18	
      6630.33017	     3.34905e-18	
      6632.22861	     3.73238e-18	
      6634.12706	     4.40553e-18	
      6636.02551	     4.32259e-18	
      6637.92396	     3.01763e-18	
      6639.82241	     3.94101e-18	
      6641.72086	     4.96004e-18	
      6643.61931	     4.07207e-18	
      6645.51776	     5.15507e-18	
      6647.41621	     4.97282e-18	
      6649.31466	     4.02903e-18	
      6651.21311	     3.39138e-18	
      6653.11156	     3.44343e-18	
      6655.01001	     3.61905e-18	
      6656.90845	     3.06451e-18	
      6658.80690	     4.42078e-18	
      6660.70535	     4.20939e-18	
      6662.60380	     3.31991e-18	
      6664.50225	     3.23523e-18	
      6666.40070	     5.34706e-18	
      6668.29915	     5.00110e-18	
      6670.19760	     4.21623e-18	
      6672.09605	     4.48106e-18	
      6673.99450	     4.26890e-18	
      6675.89295	     3.44688e-18	
      6677.79140	     4.37227e-18	
      6679.68984	     4.61917e-18	
      6681.58829	     3.45795e-18	
      6683.48674	     3.62015e-18	
      6685.38519	     4.59777e-18	
      6687.28364	     3.21601e-18	
      6689.18209	     3.06919e-18	
      6691.08054	     4.06253e-18	
      6692.97899	     4.36098e-18	
      6694.87744	     3.96575e-18	
      6696.77589	     3.57076e-18	
      6698.67434	     3.31616e-18	
      6700.57279	     3.33140e-18	
      6702.47124	     3.38790e-18	
      6704.36968	     4.04306e-18	
      6706.26813	     3.88548e-18	
      6708.16658	     4.25715e-18	
      6710.06503	     3.58507e-18	
      6711.96348	     3.64199e-18	
      6713.86193	     3.34738e-18	
      6715.76038	     4.05768e-18	
      6717.65883	     4.35859e-18	
      6719.55728	     3.26619e-18	
      6721.45573	     3.67920e-18	
      6723.35418	     3.90710e-18	
      6725.25263	     3.13051e-18	
      6727.15108	     4.15808e-18	
      6729.04952	     4.22390e-18	
      6730.94797	     4.30480e-18	
      6732.84642	     4.19234e-18	
      6734.74487	     4.00049e-18	
      6736.64332	     4.15809e-18	
      6738.54177	     4.22678e-18	
      6740.44022	     4.32278e-18	
      6742.33867	     4.06703e-18	
      6744.23712	     3.21325e-18	
      6746.13557	     3.74053e-18	
      6748.03402	     3.98468e-18	
      6749.93247	     3.73067e-18	
      6751.83092	     3.46507e-18	
      6753.72936	     4.41431e-18	
      6755.62781	     3.98215e-18	
      6757.52626	     3.40402e-18	
      6759.42471	     4.30869e-18	
      6761.32316	     3.66061e-18	
      6763.22161	     4.26947e-18	
      6765.12006	     4.64989e-18	
      6767.01851	     4.39294e-18	
      6768.91696	     5.64250e-18	
      6770.81541	     4.92503e-18	
      6772.71386	     4.26798e-18	
      6774.61231	     4.01014e-18	
      6776.51076	     4.78440e-18	
      6778.40920	     5.30152e-18	
      6780.30765	     4.85866e-18	
      6782.20610	     4.80441e-18	
      6784.10455	     5.62901e-18	
      6786.00300	     4.41749e-18	
      6787.90145	     4.06951e-18	
      6789.79990	     4.20097e-18	
      6791.69835	     3.91584e-18	
      6793.59680	     3.69451e-18	
      6795.49525	     5.16430e-18	
      6797.39370	     4.80558e-18	
      6799.29215	     4.74336e-18	
      6801.19060	     4.64594e-18	
      6803.08904	     4.52999e-18	
      6804.98749	     4.51344e-18	
      6806.88594	     4.22456e-18	
      6808.78439	     4.78967e-18	
      6810.68284	     6.30976e-18	
      6812.58129	     4.74175e-18	
      6814.47974	     3.90134e-18	
      6816.37819	     3.65912e-18	
      6818.27664	     3.59109e-18	
      6820.17509	     4.86326e-18	
      6822.07354	     5.35572e-18	
      6823.97199	     4.43382e-18	
      6825.87044	     4.41538e-18	
      6827.76888	     4.28005e-18	
      6829.66733	     3.61441e-18	
      6831.56578	     4.91612e-18	
      6833.46423	     5.00957e-18	
      6835.36268	     4.84117e-18	
      6837.26113	     5.66072e-18	
      6839.15958	     7.01499e-18	
      6841.05803	     5.98902e-18	
      6842.95648	     5.80020e-18	
      6844.85493	     5.87943e-18	
      6846.75338	     5.00148e-18	
      6848.65183	     5.51932e-18	
      6850.55028	     5.59200e-18	
      6852.44872	     6.23144e-18	
      6854.34717	     5.14296e-18	
      6856.24562	     4.68310e-18	
      6858.14407	     4.23437e-18	
      6860.04252	     5.20029e-18	
      6861.94097	     4.73657e-18	
      6863.83942	     4.15245e-18	
      6865.73787	     4.92230e-18	
      6867.63632	     5.91795e-18	
      6869.53477	     3.87870e-18	
      6871.43322	     4.02287e-18	
      6873.33167	     4.74708e-18	
      6875.23012	     4.87871e-18	
      6877.12856	     4.44773e-18	
      6879.02701	     5.89431e-18	
      6880.92546	     5.48034e-18	
      6882.82391	     4.99512e-18	
      6884.72236	     5.13534e-18	
      6886.62081	     4.68699e-18	
      6888.51926	     4.69156e-18	
      6890.41771	     4.44955e-18	
      6892.31616	     5.01934e-18	
      6894.21461	     5.62911e-18	
      6896.11306	     5.92468e-18	
      6898.01151	     5.94796e-18	
      6899.90995	     4.91814e-18	
      6901.80840	     6.02655e-18	
      6903.70685	     5.77367e-18	
      6905.60530	     6.32687e-18	
      6907.50375	     7.71575e-18	
      6909.40220	     6.38215e-18	
      6911.30065	     4.76876e-18	
      6913.19910	     6.22012e-18	
      6915.09755	     7.13656e-18	
      6916.99600	     6.75492e-18	
      6918.89445	     6.37776e-18	
      6920.79290	     6.01993e-18	
      6922.69135	     7.57028e-18	
      6924.58979	     6.91415e-18	
      6926.48824	     5.67306e-18	
      6928.38669	     6.10249e-18	
      6930.28514	     7.20843e-18	
      6932.18359	     7.73822e-18	
      6934.08204	     7.45000e-18	
      6935.98049	     7.40191e-18	
      6937.87894	     7.29748e-18	
      6939.77739	     8.76223e-18	
      6941.67584	     8.61466e-18	
      6943.57429	     8.68856e-18	
      6945.47274	     9.66009e-18	
      6947.37119	     8.77733e-18	
      6949.26963	     9.74111e-18	
      6951.16808	     9.82477e-18	
      6953.06653	     9.46048e-18	
      6954.96498	     9.25386e-18	
      6956.86343	     1.00143e-17	
      6958.76188	     9.73160e-18	
      6960.66033	     9.31860e-18	
      6962.55878	     8.86815e-18	
      6964.45723	     9.20517e-18	
      6966.35568	     1.00113e-17	
      6968.25413	     1.08172e-17	
      6970.15258	     9.89965e-18	
      6972.05103	     9.53295e-18	
      6973.94947	     1.01809e-17	
      6975.84792	     9.37744e-18	
      6977.74637	     1.07016e-17	
      6979.64482	     1.12071e-17	
      6981.54327	     1.09296e-17	
      6983.44172	     1.17404e-17	
      6985.34017	     1.10966e-17	
      6987.23862	     1.15211e-17	
      6989.13707	     1.05664e-17	
      6991.03552	     9.92467e-18	
      6992.93397	     1.07548e-17	
      6994.83242	     9.97512e-18	
      6996.73087	     9.25903e-18	
      6998.62931	     1.06747e-17	
      7000.52776	     1.08934e-17	
      7002.42621	     1.00456e-17	
      7004.32466	     1.05930e-17	
      7006.22311	     1.08628e-17	
      7008.12156	     1.09097e-17	
      7010.02001	     1.13986e-17	
      7011.91846	     1.18305e-17	
      7013.81691	     1.19019e-17	
      7015.71536	     1.09810e-17	
      7017.61381	     1.12640e-17	
      7019.51226	     1.12403e-17	
      7021.41071	     1.16760e-17	
      7023.30915	     1.14987e-17	
      7025.20760	     1.19438e-17	
      7027.10605	     1.09541e-17	
      7029.00450	     1.19478e-17	
      7030.90295	     1.29761e-17	
      7032.80140	     1.31654e-17	
      7034.69985	     1.31321e-17	
      7036.59830	     1.30253e-17	
      7038.49675	     1.35357e-17	
      7040.39520	     1.32787e-17	
      7042.29365	     1.28205e-17	
      7044.19210	     1.34133e-17	
      7046.09055	     1.35931e-17	
      7047.98899	     1.31841e-17	
      7049.88744	     1.28143e-17	
      7051.78589	     1.31873e-17	
      7053.68434	     1.24186e-17	
      7055.58279	     9.76369e-18	
      7057.48124	     7.38403e-18	
      7059.37969	     6.06200e-18	
      7061.27814	     5.82181e-18	
      7063.17659	     6.13888e-18	
      7065.07504	     5.40179e-18	
      7066.97349	     5.89659e-18	
      7068.87194	     6.19577e-18	
      7070.77039	     5.88957e-18	
      7072.66883	     5.88862e-18	
      7074.56728	     6.67254e-18	
      7076.46573	     6.42238e-18	
      7078.36418	     6.97465e-18	
      7080.26263	     6.65082e-18	
      7082.16108	     6.18240e-18	
      7084.05953	     6.89272e-18	
      7085.95798	     6.37479e-18	
      7087.85643	     5.83575e-18	
      7089.75488	     5.58207e-18	
      7091.65333	     5.10627e-18	
      7093.55178	     5.12712e-18	
      7095.45023	     5.39018e-18	
      7097.34867	     4.29411e-18	
      7099.24712	     4.88913e-18	
      7101.14557	     4.26905e-18	
      7103.04402	     3.90719e-18	
      7104.94247	     5.08099e-18	
      7106.84092	     5.33020e-18	
      7108.73937	     5.82074e-18	
      7110.63782	     5.91189e-18	
      7112.53627	     5.48035e-18	
      7114.43472	     5.92016e-18	
      7116.33317	     6.87289e-18	
      7118.23162	     6.77956e-18	
      7120.13007	     6.11005e-18	
      7122.02851	     6.44521e-18	
      7123.92696	     7.36735e-18	
      7125.82541	     5.77930e-18	
      7127.72386	     4.90745e-18	
      7129.62231	     5.58500e-18	
      7131.52076	     4.36747e-18	
      7133.41921	     4.37025e-18	
      7135.31766	     4.47030e-18	
      7137.21611	     3.67360e-18	
      7139.11456	     3.78098e-18	
      7141.01301	     4.47145e-18	
      7142.91146	     4.15822e-18	
      7144.80990	     4.51978e-18	
      7146.70835	     4.59933e-18	
      7148.60680	     4.93668e-18	
      7150.50525	     5.52817e-18	
      7152.40370	     5.29654e-18	
      7154.30215	     4.80143e-18	
      7156.20060	     5.74656e-18	
      7158.09905	     5.67763e-18	
      7159.99750	     5.22910e-18	
      7161.89595	     5.51365e-18	
      7163.79440	     5.39097e-18	
      7165.69285	     4.23343e-18	
      7167.59130	     4.56204e-18	
      7169.48974	     5.97280e-18	
      7171.38819	     6.54240e-18	
      7173.28664	     6.20479e-18	
      7175.18509	     5.57239e-18	
      7177.08354	     4.83686e-18	
      7178.98199	     5.62111e-18	
      7180.88044	     6.22810e-18	
      7182.77889	     5.92211e-18	
      7184.67734	     6.10916e-18	
      7186.57579	     6.71336e-18	
      7188.47424	     6.92618e-18	
      7190.37269	     6.71837e-18	
      7192.27114	     6.72221e-18	
      7194.16958	     6.80556e-18	
      7196.06803	     7.09935e-18	
      7197.96648	     6.32873e-18	
      7199.86493	     5.99036e-18	
      7201.76338	     6.16216e-18	
      7203.66183	     6.00279e-18	
      7205.56028	     5.95464e-18	
      7207.45873	     5.83547e-18	
      7209.35718	     5.73507e-18	
      7211.25563	     6.00640e-18	
      7213.15408	     6.39219e-18	
      7215.05253	     6.73573e-18	
      7216.95098	     6.26954e-18	
      7218.84942	     7.41181e-18	
      7220.74787	     7.42791e-18	
      7222.64632	     7.89692e-18	
      7224.54477	     7.78264e-18	
      7226.44322	     7.71954e-18	
      7228.34167	     7.33978e-18	
      7230.24012	     7.06608e-18	
      7232.13857	     6.55638e-18	
      7234.03702	     7.29058e-18	
      7235.93547	     7.55013e-18	
      7237.83392	     9.12329e-18	
      7239.73237	     9.07756e-18	
      7241.63082	     8.65104e-18	
      7243.52926	     9.92649e-18	
      7245.42771	     1.03576e-17	
      7247.32616	     9.86621e-18	
      7249.22461	     9.80975e-18	
      7251.12306	     9.61837e-18	
      7253.02151	     1.08405e-17	
      7254.91996	     1.05579e-17	
      7256.81841	     1.04358e-17	
      7258.71686	     1.16460e-17	
      7260.61531	     1.17572e-17	
      7262.51376	     1.11315e-17	
      7264.41221	     1.22874e-17	
      7266.31066	     1.24596e-17	
      7268.20910	     1.19922e-17	
      7270.10755	     1.19738e-17	
      7272.00600	     1.05921e-17	
      7273.90445	     8.84211e-18	
      7275.80290	     1.20648e-17	
      7277.70135	     1.30831e-17	
      7279.59980	     1.24632e-17	
      7281.49825	     1.19662e-17	
      7283.39670	     1.19304e-17	
      7285.29515	     1.34597e-17	
      7287.19360	     1.28597e-17	
      7289.09205	     1.31598e-17	
      7290.99050	     1.33773e-17	
      7292.88894	     1.39861e-17	
      7294.78739	     1.35642e-17	
      7296.68584	     1.34273e-17	
      7298.58429	     1.49437e-17	
      7300.48274	     1.52692e-17	
      7302.38119	     1.45711e-17	
      7304.27964	     1.55585e-17	
      7306.17809	     1.58473e-17	
      7308.07654	     1.67034e-17	
      7309.97499	     1.66307e-17	
      7311.87344	     1.61243e-17	
      7313.77189	     1.65623e-17	
      7315.67034	     1.68342e-17	
      7317.56878	     1.84837e-17	
      7319.46723	     1.80787e-17	
      7321.36568	     1.93152e-17	
      7323.26413	     1.83462e-17	
      7325.16258	     1.80270e-17	
      7327.06103	     1.89442e-17	
      7328.95948	     1.99018e-17	
      7330.85793	     1.92175e-17	
      7332.75638	     2.01946e-17	
      7334.65483	     2.00088e-17	
      7336.55328	     2.05888e-17	
      7338.45173	     2.16298e-17	
      7340.35018	     2.24012e-17	
      7342.24862	     2.06499e-17	
      7344.14707	     2.12940e-17	
      7346.04552	     2.11793e-17	
      7347.94397	     1.91482e-17	
      7349.84242	     1.99018e-17	
      7351.74087	     2.10170e-17	
      7353.63932	     2.08195e-17	
      7355.53777	     1.90605e-17	
      7357.43622	     1.82312e-17	
      7359.33467	     1.97419e-17	
      7361.23312	     2.15015e-17	
      7363.13157	     2.20085e-17	
      7365.03002	     2.21699e-17	
      7366.92846	     2.30867e-17	
      7368.82691	     2.41532e-17	
      7370.72536	     2.48332e-17	
      7372.62381	     2.34497e-17	
      7374.52226	     2.27451e-17	
      7376.42071	     2.19372e-17	
      7378.31916	     2.25489e-17	
      7380.21761	     2.24128e-17	
      7382.11606	     2.24501e-17	
      7384.01451	     2.37254e-17	
      7385.91296	     2.29036e-17	
      7387.81141	     2.36644e-17	
      7389.70985	     2.58580e-17	
      7391.60830	     2.51484e-17	
      7393.50675	     2.27358e-17	
      7395.40520	     2.09357e-17	
      7397.30365	     2.12493e-17	
      7399.20210	     2.25880e-17	
      7401.10055	     2.29093e-17	
      7402.99900	     2.26184e-17	
      7404.89745	     2.32263e-17	
      7406.79590	     2.17303e-17	
      7408.69435	     2.10069e-17	
      7410.59280	     2.21808e-17	
      7412.49125	     2.33032e-17	
      7414.38969	     2.26674e-17	
      7416.28814	     2.26873e-17	
      7418.18659	     2.24629e-17	
      7420.08504	     2.08630e-17	
      7421.98349	     2.04359e-17	
      7423.88194	     2.17643e-17	
      7425.78039	     2.24385e-17	
      7427.67884	     2.27710e-17	
      7429.57729	     2.32303e-17	
      7431.47574	     2.36429e-17	
      7433.37419	     2.32832e-17	
      7435.27264	     2.16736e-17	
      7437.17109	     2.04538e-17	
      7439.06953	     2.09638e-17	
      7440.96798	     2.23654e-17	
      7442.86643	     2.13646e-17	
      7444.76488	     2.07837e-17	
      7446.66333	     1.93705e-17	
      7448.56178	     1.96511e-17	
      7450.46023	     2.09839e-17	
      7452.35868	     2.10389e-17	
      7454.25713	     2.24386e-17	
      7456.15558	     2.16585e-17	
      7458.05403	     2.12672e-17	
      7459.95248	     2.16765e-17	
      7461.85093	     2.15481e-17	
      7463.74937	     2.18859e-17	
      7465.64782	     2.33553e-17	
      7467.54627	     2.30745e-17	
      7469.44472	     2.27410e-17	
      7471.34317	     2.27393e-17	
      7473.24162	     2.22969e-17	
      7475.14007	     2.19815e-17	
      7477.03852	     2.18469e-17	
      7478.93697	     2.34607e-17	
      7480.83542	     2.44475e-17	
      7482.73387	     2.37802e-17	
      7484.63232	     2.41608e-17	
      7486.53077	     2.51902e-17	
      7488.42921	     2.49687e-17	
      7490.32766	     2.46179e-17	
      7492.22611	     2.41869e-17	
      7494.12456	     2.32709e-17	
      7496.02301	     2.40920e-17	
      7497.92146	     2.46256e-17	
      7499.81991	     2.54091e-17	
      7501.71836	     2.54194e-17	
      7503.61681	     2.45679e-17	
      7505.51526	     2.51760e-17	
      7507.41371	     2.58495e-17	
      7509.31216	     2.59200e-17	
      7511.21061	     2.70870e-17	
      7513.10905	     2.62244e-17	
      7515.00750	     2.51968e-17	
      7516.90595	     2.53306e-17	
      7518.80440	     2.54516e-17	
      7520.70285	     2.60039e-17	
      7522.60130	     2.69744e-17	
      7524.49975	     2.64256e-17	
      7526.39820	     2.43547e-17	
      7528.29665	     2.62625e-17	
      7530.19510	     2.73884e-17	
      7532.09355	     2.64833e-17	
      7533.99200	     2.69335e-17	
      7535.89045	     2.76035e-17	
      7537.78889	     2.79579e-17	
      7539.68734	     2.95601e-17	
      7541.58579	     3.05510e-17	
      7543.48424	     2.98670e-17	
      7545.38269	     3.02839e-17	
      7547.28114	     2.98652e-17	
      7549.17959	     3.02223e-17	
      7551.07804	     2.95541e-17	
      7552.97649	     2.97054e-17	
      7554.87494	     3.09844e-17	
      7556.77339	     3.14086e-17	
      7558.67184	     3.24051e-17	
      7560.57029	     3.10615e-17	
      7562.46873	     3.12094e-17	
      7564.36718	     3.20365e-17	
      7566.26563	     3.13060e-17	
      7568.16408	     2.96888e-17	
      7570.06253	     2.94093e-17	
      7571.96098	     3.09556e-17	
      7573.85943	     3.19761e-17	
      7575.75788	     3.23321e-17	
      7577.65633	     3.05608e-17	
      7579.55478	     3.02698e-17	
      7581.45323	     3.26283e-17	
      7583.35168	     3.35681e-17	
      7585.25013	     3.15799e-17	
      7587.14857	     2.77606e-17	
      7589.04702	     2.28545e-17	
      7590.94547	     1.83471e-17	
      7592.84392	     1.39619e-17	
      7594.74237	     1.11073e-17	
      7596.64082	     1.00161e-17	
      7598.53927	     8.39493e-18	
      7600.43772	     7.28024e-18	
      7602.33617	     7.45874e-18	
      7604.23462	     6.92108e-18	
      7606.13307	     7.33060e-18	
      7608.03152	     8.79318e-18	
      7609.92996	     1.00504e-17	
      7611.82841	     1.17472e-17	
      7613.72686	     1.40151e-17	
      7615.62531	     1.79621e-17	
      7617.52376	     2.00596e-17	
      7619.42221	     2.03472e-17	
      7621.32066	     1.76533e-17	
      7623.21911	     1.44832e-17	
      7625.11756	     1.30529e-17	
      7627.01601	     1.17658e-17	
      7628.91446	     9.98873e-18	
      7630.81291	     9.08706e-18	
      7632.71136	     8.77780e-18	
      7634.60980	     9.69713e-18	
      7636.50825	     1.01826e-17	
      7638.40670	     1.04107e-17	
      7640.30515	     1.01632e-17	
      7642.20360	     1.08938e-17	
      7644.10205	     1.10221e-17	
      7646.00050	     1.19070e-17	
      7647.89895	     1.26117e-17	
      7649.79740	     1.22887e-17	
      7651.69585	     1.28993e-17	
      7653.59430	     1.28904e-17	
      7655.49275	     1.10542e-17	
      7657.39120	     1.03997e-17	
      7659.28964	     9.71019e-18	
      7661.18809	     8.86095e-18	
      7663.08654	     7.80893e-18	
      7664.98499	     6.03931e-18	
      7666.88344	     5.02897e-18	
      7668.78189	     6.47385e-18	
      7670.68034	     7.15995e-18	
      7672.57879	     7.78713e-18	
      7674.47724	     9.05556e-18	
      7676.37569	     8.62519e-18	
      7678.27414	     9.58809e-18	
      7680.17259	     9.97492e-18	
      7682.07104	     1.01517e-17	
      7683.96948	     1.11500e-17	
      7685.86793	     1.16147e-17	
      7687.76638	     1.15865e-17	
      7689.66483	     1.15332e-17	
      7691.56328	     1.20071e-17	
      7693.46173	     1.16580e-17	
      7695.36018	     1.08731e-17	
      7697.25863	     8.82778e-18	
      7699.15708	     7.43606e-18	
      7701.05553	     8.12523e-18	
      7702.95398	     8.82254e-18	
      7704.85243	     9.46751e-18	
      7706.75088	     1.01887e-17	
      7708.64932	     1.07823e-17	
      7710.54777	     1.16732e-17	
      7712.44622	     1.35428e-17	
      7714.34467	     1.53653e-17	
      7716.24312	     1.39736e-17	
      7718.14157	     1.43048e-17	
      7720.04002	     1.43603e-17	
      7721.93847	     1.41555e-17	
      7723.83692	     1.43946e-17	
      7725.73537	     1.62878e-17	
      7727.63382	     1.72610e-17	
      7729.53227	     1.60100e-17	
      7731.43072	     1.70643e-17	
      7733.32916	     1.77693e-17	
      7735.22761	     1.84041e-17	
      7737.12606	     1.81076e-17	
      7739.02451	     1.96499e-17	
      7740.92296	     1.97175e-17	
      7742.82141	     1.74967e-17	
      7744.71986	     1.61654e-17	
      7746.61831	     1.54590e-17	
      7748.51676	     1.61747e-17	
      7750.41521	     1.70683e-17	
      7752.31366	     1.50711e-17	
      7754.21211	     1.47528e-17	
      7756.11056	     1.57129e-17	
      7758.00900	     1.66219e-17	
      7759.90745	     1.50206e-17	
      7761.80590	     1.47712e-17	
      7763.70435	     1.45777e-17	
      7765.60280	     1.51137e-17	
      7767.50125	     1.61873e-17	
      7769.39970	     1.54147e-17	
      7771.29815	     1.59045e-17	
      7773.19660	     1.75096e-17	
      7775.09505	     1.70638e-17	
      7776.99350	     1.73959e-17	
      7778.89195	     1.70001e-17	
      7780.79040	     1.65979e-17	
      7782.68884	     1.69061e-17	
      7784.58729	     1.59378e-17	
      7786.48574	     1.60300e-17	
      7788.38419	     1.48704e-17	
      7790.28264	     1.40140e-17	
      7792.18109	     1.60896e-17	
      7794.07954	     1.58638e-17	
      7795.97799	     1.77136e-17	
      7797.87644	     1.73237e-17	
      7799.77489	     1.72205e-17	
      7801.67334	     1.64972e-17	
      7803.57179	     1.84510e-17	
      7805.47024	     2.02036e-17	
      7807.36868	     2.10982e-17	
      7809.26713	     2.22792e-17	
      7811.16558	     2.12504e-17	
      7813.06403	     2.26143e-17	
      7814.96248	     2.25434e-17	
      7816.86093	     2.08455e-17	
      7818.75938	     2.13064e-17	
      7820.65783	     1.87270e-17	
      7822.55628	     1.86792e-17	
      7824.45473	     2.19706e-17	
      7826.35318	     2.12917e-17	
      7828.25163	     2.00682e-17	
      7830.15008	     1.82172e-17	
      7832.04852	     1.88583e-17	
      7833.94697	     1.88694e-17	
      7835.84542	     1.85705e-17	
      7837.74387	     1.96897e-17	
      7839.64232	     2.11849e-17	
      7841.54077	     2.04237e-17	
      7843.43922	     2.01928e-17	
      7845.33767	     2.12198e-17	
      7847.23612	     2.22070e-17	
      7849.13457	     2.12643e-17	
      7851.03302	     2.01696e-17	
      7852.93147	     2.10637e-17	
      7854.82991	     2.22935e-17	
      7856.72836	     2.19086e-17	
      7858.62681	     2.25576e-17	
      7860.52526	     2.05753e-17	
      7862.42371	     2.02184e-17	
      7864.32216	     1.99501e-17	
      7866.22061	     2.04253e-17	
      7868.11906	     1.95844e-17	
      7870.01751	     1.91583e-17	
      7871.91596	     1.96766e-17	
      7873.81441	     2.03780e-17	
      7875.71286	     1.94741e-17	
      7877.61131	     2.07714e-17	
      7879.50975	     2.13148e-17	
      7881.40820	     2.09186e-17	
      7883.30665	     2.15702e-17	
      7885.20510	     2.36327e-17	
      7887.10355	     2.45471e-17	
      7889.00200	     2.37157e-17	
      7890.90045	     2.45229e-17	
      7892.79890	     2.47669e-17	
      7894.69735	     2.25068e-17	
      7896.59580	     2.17173e-17	
      7898.49425	     2.07756e-17	
      7900.39270	     1.91156e-17	
      7902.29115	     1.93128e-17	
      7904.18959	     2.04257e-17	
      7906.08804	     2.15627e-17	
      7907.98649	     1.98309e-17	
      7909.88494	     1.82183e-17	
      7911.78339	     1.80905e-17	
      7913.68184	     1.72047e-17	
      7915.58029	     1.80501e-17	
      7917.47874	     1.89693e-17	
      7919.37719	     1.72684e-17	
      7921.27564	     1.71487e-17	
      7923.17409	     1.95829e-17	
      7925.07254	     2.15426e-17	
      7926.97099	     2.21140e-17	
      7928.86943	     2.41557e-17	
      7930.76788	     2.26880e-17	
      7932.66633	     2.36692e-17	
      7934.56478	     2.22376e-17	
      7936.46323	     2.32386e-17	
      7938.36168	     2.26263e-17	
      7940.26013	     2.05102e-17	
      7942.15858	     1.93324e-17	
      7944.05703	     1.99315e-17	
      7945.95548	     1.92577e-17	
      7947.85393	     1.90266e-17	
      7949.75238	     1.92180e-17	
      7951.65083	     1.96399e-17	
      7953.54927	     2.24329e-17	
      7955.44772	     2.49146e-17	
      7957.34617	     2.40701e-17	
      7959.24462	     2.36880e-17	
      7961.14307	     2.16747e-17	
      7963.04152	     2.22177e-17	
      7964.93997	     2.23247e-17	
      7966.83842	     2.33285e-17	
      7968.73687	     2.19189e-17	
      7970.63532	     2.47080e-17	
      7972.53377	     2.42706e-17	
      7974.43222	     2.21181e-17	
      7976.33067	     1.99104e-17	
      7978.22911	     1.97259e-17	
      7980.12756	     1.88349e-17	
      7982.02601	     2.04145e-17	
      7983.92446	     2.04610e-17	
      7985.82291	     1.99509e-17	
      7987.72136	     1.93170e-17	
      7989.61981	     2.05318e-17	
      7991.51826	     2.21622e-17	
      7993.41671	     2.21879e-17	
      7995.31516	     2.43165e-17	
      7997.21361	     2.45598e-17	
      7999.11206	     2.37025e-17	
      8001.01051	     2.24161e-17	
      8002.90895	     2.25642e-17	
      8004.80740	     2.49135e-17	
      8006.70585	     2.59123e-17	
      8008.60430	     2.58451e-17	
      8010.50275	     2.29860e-17	
      8012.40120	     2.33480e-17	
      8014.29965	     2.52370e-17	
      8016.19810	     2.56907e-17	
      8018.09655	     2.55394e-17	
      8019.99500	     2.72399e-17	
      8021.89345	     3.06531e-17	
      8023.79190	     3.07608e-17	
      8025.69035	     3.13760e-17	
      8027.58879	     3.32362e-17	
      8029.48724	     3.07604e-17	
      8031.38569	     2.99730e-17	
      8033.28414	     3.06645e-17	
      8035.18259	     3.02634e-17	
      8037.08104	     2.93418e-17	
      8038.97949	     2.88705e-17	
      8040.87794	     3.03539e-17	
      8042.77639	     3.07839e-17	
      8044.67484	     3.06899e-17	
      8046.57329	     3.15776e-17	
      8048.47174	     3.26578e-17	
      8050.37019	     3.44192e-17	
      8052.26863	     3.68768e-17	
      8054.16708	     3.52187e-17	
      8056.06553	     3.52426e-17	
      8057.96398	     3.52496e-17	
      8059.86243	     3.49044e-17	
      8061.76088	     3.54174e-17	
      8063.65933	     3.88007e-17	
      8065.55778	     3.78016e-17	
      8067.45623	     3.78144e-17	
      8069.35468	     3.88965e-17	
      8071.25313	     3.86791e-17	
      8073.15158	     3.95420e-17	
      8075.05003	     4.05244e-17	
      8076.94847	     4.21571e-17	
      8078.84692	     4.28484e-17	
      8080.74537	     4.35944e-17	
      8082.64382	     4.38687e-17	
      8084.54227	     4.45290e-17	
      8086.44072	     4.59300e-17	
      8088.33917	     4.41707e-17	
      8090.23762	     4.43208e-17	
      8092.13607	     4.60749e-17	
      8094.03452	     4.66654e-17	
      8095.93297	     4.62050e-17	
      8097.83142	     4.50439e-17	
      8099.72986	     4.43792e-17	
      8101.62831	     4.53873e-17	
      8103.52676	     4.76679e-17	
      8105.42521	     4.64718e-17	
      8107.32366	     4.77648e-17	
      8109.22211	     4.91582e-17	
      8111.12056	     5.00687e-17	
      8113.01901	     5.09056e-17	
      8114.91746	     4.99080e-17	
      8116.81591	     4.93585e-17	
      8118.71436	     5.10956e-17	
      8120.61281	     5.33093e-17	
      8122.51126	     5.44466e-17	
      8124.40970	     5.56835e-17	
      8126.30815	     5.63450e-17	
      8128.20660	     5.69526e-17	
      8130.10505	     5.75820e-17	
      8132.00350	     5.73685e-17	
      8133.90195	     5.87314e-17	
      8135.80040	     5.96283e-17	
      8137.69885	     5.87057e-17	
      8139.59730	     5.88076e-17	
      8141.49575	     5.82415e-17	
      8143.39420	     5.71231e-17	
      8145.29265	     5.51408e-17	
      8147.19110	     5.44900e-17	
      8149.08954	     5.52026e-17	
      8150.98799	     5.60289e-17	
      8152.88644	     5.71800e-17	
      8154.78489	     5.72057e-17	
      8156.68334	     5.81804e-17	
      8158.58179	     5.85062e-17	
      8160.48024	     5.73207e-17	
      8162.37869	     5.77832e-17	
      8164.27714	     5.90559e-17	
      8166.17559	     6.11426e-17	
      8168.07404	     6.22840e-17	
      8169.97249	     6.32656e-17	
      8171.87094	     6.37740e-17	
      8173.76938	     6.35279e-17	
      8175.66783	     6.14215e-17	
      8177.56628	     5.98554e-17	
      8179.46473	     5.47156e-17	
      8181.36318	     4.76282e-17	
      8183.26163	     4.00952e-17	
      8185.16008	     4.08839e-17	
      8187.05853	     4.59145e-17	
      8188.95698	     5.12185e-17	
      8190.85543	     5.28077e-17	
      8192.75388	     4.58006e-17	
      8194.65233	     3.79935e-17	
      8196.55078	     3.55246e-17	
      8198.44922	     3.85583e-17	
      8200.34767	     4.44848e-17	
      8202.24612	     4.85659e-17	
      8204.14457	     5.15116e-17	
      8206.04302	     4.98866e-17	
      8207.94147	     4.87611e-17	
      8209.83992	     4.85089e-17	
      8211.73837	     5.03586e-17	
      8213.63682	     5.24466e-17	
      8215.53527	     5.28307e-17	
      8217.43372	     5.32362e-17	
      8219.33217	     5.31029e-17	
      8221.23062	     5.49995e-17	
      8223.12906	     5.52845e-17	
      8225.02751	     5.57653e-17	
      8226.92596	     5.69268e-17	
      8228.82441	     6.03235e-17	
      8230.72286	     6.25201e-17	
      8232.62131	     6.28620e-17	
      8234.51976	     6.16879e-17	
      8236.41821	     6.10201e-17	
      8238.31666	     6.22117e-17	
      8240.21511	     6.15911e-17	
      8242.11356	     6.17575e-17	
      8244.01201	     6.17776e-17	
      8245.91046	     6.29535e-17	
      8247.80890	     6.33526e-17	
      8249.70735	     5.91108e-17	
      8251.60580	     5.78249e-17	
      8253.50425	     5.60198e-17	
      8255.40270	     5.43714e-17	
      8257.30115	     5.63844e-17	
      8259.19960	     5.79975e-17	
      8261.09805	     6.04224e-17	
      8262.99650	     6.28347e-17	
      8264.89495	     6.10390e-17	
      8266.79340	     6.15184e-17	
      8268.69185	     5.99254e-17	
      8270.59030	     5.69009e-17	
      8272.48874	     5.49408e-17	
      8274.38719	     5.44850e-17	
      8276.28564	     5.79278e-17	
      8278.18409	     5.70932e-17	
      8280.08254	     5.53130e-17	
      8281.98099	     5.34506e-17	
      8283.87944	     5.16977e-17	
      8285.77789	     5.09889e-17	
      8287.67634	     4.87122e-17	
      8289.57479	     4.76403e-17	
      8291.47324	     4.95054e-17	
      8293.37169	     5.03624e-17	
      8295.27014	     4.77358e-17	
      8297.16858	     4.83294e-17	
      8299.06703	     4.57305e-17	
      8300.96548	     4.23907e-17	
      8302.86393	     4.26250e-17	
      8304.76238	     4.32224e-17	
      8306.66083	     4.45874e-17	
      8308.55928	     4.69697e-17	
      8310.45773	     4.83832e-17	
      8312.35618	     4.68606e-17	
      8314.25463	     4.80283e-17	
      8316.15308	     5.07028e-17	
      8318.05153	     5.37285e-17	
      8319.94997	     5.39926e-17	
      8321.84842	     5.41209e-17	
      8323.74687	     5.41325e-17	
      8325.64532	     5.18278e-17	
      8327.54377	     5.16889e-17	
      8329.44222	     5.05523e-17	
      8331.34067	     5.24255e-17	
      8333.23912	     5.31767e-17	
      8335.13757	     4.94083e-17	
      8337.03602	     4.83641e-17	
      8338.93447	     4.97212e-17	
      8340.83292	     5.05524e-17	
      8342.73137	     4.83381e-17	
      8344.62981	     4.62273e-17	
      8346.52826	     4.50202e-17	
      8348.42671	     4.79909e-17	
      8350.32516	     4.86324e-17	
      8352.22361	     4.88235e-17	
      8354.12206	     5.08336e-17	
      8356.02051	     5.30828e-17	
      8357.91896	     5.38480e-17	
      8359.81741	     5.27231e-17	
      8361.71586	     5.47877e-17	
      8363.61431	     5.41235e-17	
      8365.51276	     5.37489e-17	
      8367.41121	     5.52800e-17	
      8369.30965	     5.61467e-17	
      8371.20810	     5.51908e-17	
      8373.10655	     5.32257e-17	
      8375.00500	     4.88910e-17	
      8376.90345	     4.87303e-17	
      8378.80190	     4.76395e-17	
      8380.70035	     4.86093e-17	
      8382.59880	     5.11780e-17	
      8384.49725	     4.92515e-17	
      8386.39570	     4.86989e-17	
      8388.29415	     4.67281e-17	
      8390.19260	     4.63205e-17	
      8392.09105	     4.62809e-17	
      8393.98949	     4.86938e-17	
      8395.88794	     4.92393e-17	
      8397.78639	     4.89923e-17	
      8399.68484	     5.34379e-17	
      8401.58329	     5.46504e-17	
      8403.48174	     5.28684e-17	
      8405.38019	     4.96832e-17	
      8407.27864	     5.34949e-17	
      8409.17709	     5.39347e-17	
      8411.07554	     5.47430e-17	
      8412.97399	     5.50282e-17	
      8414.87244	     5.54386e-17	
      8416.77089	     5.45640e-17	
      8418.66933	     5.28065e-17	
      8420.56778	     5.05607e-17	
      8422.46623	     5.02426e-17	
      8424.36468	     5.21224e-17	
      8426.26313	     5.15610e-17	
      8428.16158	     5.05635e-17	
      8430.06003	     5.19205e-17	
      8431.95848	     4.94962e-17	
      8433.85693	     4.15372e-17	
      8435.75538	     3.91295e-17	
      8437.65383	     3.86428e-17	
      8439.55228	     4.09960e-17	
      8441.45073	     4.06270e-17	
      8443.34917	     3.56603e-17	
      8445.24762	     3.17680e-17	
      8447.14607	     3.15640e-17	
      8449.04452	     3.41200e-17	
      8450.94297	     3.37965e-17	
      8452.84142	     2.97254e-17	
      8454.73987	     2.55334e-17	
      8456.63832	     2.51296e-17	
      8458.53677	     2.54699e-17	
      8460.43522	     2.53823e-17	
      8462.33367	     2.89594e-17	
      8464.23212	     3.10792e-17	
      8466.13057	     2.91654e-17	
      8468.02901	     3.09383e-17	
      8469.92746	     3.10687e-17	
      8471.82591	     2.90199e-17	
      8473.72436	     2.91864e-17	
      8475.62281	     2.99561e-17	
      8477.52126	     2.95105e-17	
      8479.41971	     2.88444e-17	
      8481.31816	     2.92379e-17	
      8483.21661	     3.01173e-17	
      8485.11506	     3.13376e-17	
      8487.01351	     3.14026e-17	
      8488.91196	     3.28058e-17	
      8490.81041	     3.46793e-17	
      8492.70885	     3.70223e-17	
      8494.60730	     3.64840e-17	
      8496.50575	     3.36179e-17	
      8498.40420	     3.21186e-17	
      8500.30265	     3.29713e-17	
      8502.20110	     3.29737e-17	
      8504.09955	     3.12440e-17	
      8505.99800	     2.88770e-17	
      8507.89645	     2.90908e-17	
      8509.79490	     3.18194e-17	
      8511.69335	     3.32633e-17	
      8513.59180	     3.39058e-17	
      8515.49025	     3.21060e-17	
      8517.38869	     3.12238e-17	
      8519.28714	     2.93567e-17	
      8521.18559	     2.84101e-17	
      8523.08404	     2.96424e-17	
      8524.98249	     3.03727e-17	
      8526.88094	     3.17239e-17	
      8528.77939	     3.26991e-17	
      8530.67784	     3.22218e-17	
      8532.57629	     3.31669e-17	
      8534.47474	     3.73609e-17	
      8536.37319	     3.67335e-17	
      8538.27164	     3.57277e-17	
      8540.17009	     3.51556e-17	
      8542.06853	     3.67558e-17	
      8543.96698	     3.77049e-17	
      8545.86543	     3.90109e-17	
      8547.76388	     3.82022e-17	
      8549.66233	     3.82966e-17	
      8551.56078	     4.09747e-17	
      8553.45923	     4.15445e-17	
      8555.35768	     4.13736e-17	
      8557.25613	     4.16908e-17	
      8559.15458	     4.01550e-17	
      8561.05303	     3.92840e-17	
      8562.95148	     4.02344e-17	
      8564.84992	     4.24020e-17	
      8566.74837	     4.26797e-17	
      8568.64682	     4.13592e-17	
      8570.54527	     4.14295e-17	
      8572.44372	     3.86950e-17	
      8574.34217	     4.00184e-17	
      8576.24062	     4.00970e-17	
      8578.13907	     3.93906e-17	
      8580.03752	     3.96764e-17	
      8581.93597	     3.97340e-17	
      8583.83442	     3.86641e-17	
      8585.73287	     4.12355e-17	
      8587.63132	     4.20959e-17	
      8589.52976	     4.10001e-17	
      8591.42821	     3.93184e-17	
      8593.32666	     4.14040e-17	
      8595.22511	     4.15819e-17	
      8597.12356	     4.05992e-17	
      8599.02201	     4.20821e-17	
      8600.92046	     4.24225e-17	
      8602.81891	     4.38871e-17	
      8604.71736	     4.24793e-17	
      8606.61581	     4.48620e-17	
      8608.51426	     4.77337e-17	
      8610.41271	     4.69927e-17	
      8612.31116	     4.51953e-17	
      8614.20960	     4.45159e-17	
      8616.10805	     4.40348e-17	
      8618.00650	     4.18231e-17	
      8619.90495	     4.28800e-17	
      8621.80340	     4.28855e-17	
      8623.70185	     4.31213e-17	
      8625.60030	     4.10609e-17	
      8627.49875	     4.18817e-17	
      8629.39720	     4.07120e-17	
      8631.29565	     4.23033e-17	
      8633.19410	     4.26647e-17	
      8635.09255	     4.31036e-17	
      8636.99100	     4.08589e-17	
      8638.88944	     3.99384e-17	
      8640.78789	     3.89008e-17	
      8642.68634	     4.19514e-17	
      8644.58479	     4.27698e-17	
      8646.48324	     4.24307e-17	
      8648.38169	     4.32290e-17	
      8650.28014	     4.47690e-17	
      8652.17859	     4.45625e-17	
      8654.07704	     4.87390e-17	
      8655.97549	     4.99348e-17	
      8657.87394	     4.94809e-17	
      8659.77239	     4.76278e-17	
      8661.67084	     4.81362e-17	
      8663.56928	     4.70327e-17	
      8665.46773	     4.86605e-17	
      8667.36618	     4.70804e-17	
      8669.26463	     4.90484e-17	
      8671.16308	     4.82855e-17	
      8673.06153	     4.53793e-17	
      8674.95998	     4.58830e-17	
      8676.85843	     4.60404e-17	
      8678.75688	     4.54203e-17	
      8680.65533	     4.77380e-17	
      8682.55378	     4.62446e-17	
      8684.45223	     4.77045e-17	
      8686.35068	     4.66496e-17	
      8688.24912	     4.44212e-17	
      8690.14757	     4.27426e-17	
      8692.04602	     4.24161e-17	
      8693.94447	     4.26483e-17	
      8695.84292	     3.96887e-17	
      8697.74137	     4.02428e-17	
      8699.63982	     4.14993e-17	
      8701.53827	     4.31391e-17	
      8703.43672	     4.49270e-17	
      8705.33517	     4.62261e-17	
      8707.23362	     4.56774e-17	
      8709.13207	     4.43431e-17	
      8711.03052	     4.26593e-17	
      8712.92896	     4.13522e-17	
      8714.82741	     4.14439e-17	
      8716.72586	     4.28669e-17	
      8718.62431	     4.39505e-17	
      8720.52276	     4.43089e-17	
      8722.42121	     4.38731e-17	
      8724.31966	     4.48347e-17	
      8726.21811	     4.65751e-17	
      8728.11656	     4.97475e-17	
      8730.01501	     4.98649e-17	
      8731.91346	     4.88026e-17	
      8733.81191	     4.84862e-17	
      8735.71036	     4.63882e-17	
      8737.60880	     4.66512e-17	
      8739.50725	     4.80899e-17	
      8741.40570	     5.08202e-17	
      8743.30415	     5.28045e-17	
      8745.20260	     5.53105e-17	
      8747.10105	     5.42475e-17	
      8748.99950	     5.00032e-17	
      8750.89795	     5.09779e-17	
      8752.79640	     5.30321e-17	
      8754.69485	     5.29253e-17	
      8756.59330	     5.65121e-17	
      8758.49175	     5.80482e-17	
      8760.39020	     6.03447e-17	
      8762.28864	     6.05208e-17	
      8764.18709	     6.02547e-17	
      8766.08554	     5.71442e-17	
      8767.98399	     5.16434e-17	
      8769.88244	     5.46155e-17	
      8771.78089	     6.02195e-17	
      8773.67934	     6.24908e-17	
      8775.57779	     5.87708e-17	
      8777.47624	     5.80076e-17	
      8779.37469	     5.53639e-17	
      8781.27314	     5.58012e-17	
      8783.17159	     5.74190e-17	
      8785.07004	     5.87801e-17	
      8786.96848	     5.95707e-17	
      8788.86693	     5.95030e-17	
      8790.76538	     6.25296e-17	
      8792.66383	     6.41798e-17	
      8794.56228	     6.76789e-17	
      8796.46073	     6.67620e-17	
      8798.35918	     6.67919e-17	
      8800.25763	     6.34582e-17	
      8802.15608	     6.13879e-17	
      8804.05453	     5.80488e-17	
      8805.95298	     5.65829e-17	
      8807.85143	     5.83160e-17	
      8809.74987	     6.05725e-17	
      8811.64832	     6.38100e-17	
      8813.54677	     6.70030e-17	
      8815.44522	     6.80581e-17	
      8817.34367	     7.05004e-17	
      8819.24212	     6.69135e-17	
      8821.14057	     6.49572e-17	
      8823.03902	     6.05149e-17	
      8824.93747	     6.15579e-17	
      8826.83592	     5.67282e-17	
      8828.73437	     5.95478e-17	
      8830.63282	     6.51695e-17	
      8832.53127	     6.94364e-17	
      8834.42971	     7.23409e-17	
      8836.32816	     7.48079e-17	
      8838.22661	     7.52312e-17	
      8840.12506	     7.43278e-17	
      8842.02351	     7.26988e-17	
      8843.92196	     7.18739e-17	
      8845.82041	     7.03935e-17	
      8847.71886	     6.55204e-17	
      8849.61731	     6.71168e-17	
      8851.51576	     7.22815e-17	
      8853.41421	     7.80002e-17	
      8855.31266	     7.57751e-17	
      8857.21111	     7.08570e-17	
      8859.10955	     6.15429e-17	
      8861.00800	     5.46098e-17	
      8862.90645	     5.26729e-17	
      8864.80490	     5.47492e-17	
      8866.70335	     5.65222e-17	
      8868.60180	     5.70522e-17	
      8870.50025	     4.86031e-17	
      8872.39870	     4.58388e-17	
      8874.29715	     4.30884e-17	
      8876.19560	     4.59625e-17	
      8878.09405	     5.13747e-17	
      8879.99250	     5.58750e-17	
      8881.89095	     5.48333e-17	
      8883.78939	     5.03385e-17	
      8885.68784	     4.99446e-17	
      8887.58629	     5.25462e-17	
      8889.48474	     5.69110e-17	
      8891.38319	     5.51839e-17	
      8893.28164	     5.54597e-17	
      8895.18009	     5.42298e-17	
      8897.07854	     5.24815e-17	
      8898.97699	     5.35320e-17	
      8900.87544	     5.61508e-17	
      8902.77389	     6.06799e-17	
      8904.67234	     6.31249e-17	
      8906.57079	     6.29426e-17	
      8908.46923	     6.10088e-17	
      8910.36768	     6.02909e-17	
      8912.26613	     5.91507e-17	
      8914.16458	     6.39793e-17	
      8916.06303	     6.62811e-17	
      8917.96148	     6.30432e-17	
      8919.85993	     6.55709e-17	
      8921.75838	     6.74545e-17	
      8923.65683	     6.48195e-17	
      8925.55528	     6.19317e-17	
      8927.45373	     6.28799e-17	
      8929.35218	     6.37334e-17	
      8931.25063	     6.71163e-17	
      8933.14907	     7.19974e-17	
      8935.04752	     7.15463e-17	
      8936.94597	     6.73099e-17	
      8938.84442	     6.24697e-17	
      8940.74287	     5.80690e-17	
      8942.64132	     5.48234e-17	
      8944.53977	     5.74761e-17	
      8946.43822	     6.20772e-17	
      8948.33667	     6.15618e-17	
      8950.23512	     6.05005e-17	
      8952.13357	     6.14362e-17	
      8954.03202	     6.46720e-17	
      8955.93047	     6.76511e-17	
      8957.82891	     6.91554e-17	
      8959.72736	     6.87150e-17	
      8961.62581	     6.77001e-17	
      8963.52426	     6.50366e-17	
      8965.42271	     6.33906e-17	
      8967.32116	     6.38811e-17	
      8969.21961	     6.50138e-17	
      8971.11806	     6.45521e-17	
      8973.01651	     6.44373e-17	
      8974.91496	     6.67172e-17	
      8976.81341	     6.87253e-17	
      8978.71186	     6.77706e-17	
      8980.61031	     6.77471e-17	
      8982.50875	     6.86431e-17	
      8984.40720	     6.82494e-17	
      8986.30565	     7.20118e-17	
      8988.20410	     7.05869e-17	
      8990.10255	     6.90491e-17	
      8992.00100	     6.78724e-17	
      8993.89945	     7.13914e-17	
      8995.79790	     6.99157e-17	
      8997.69635	     6.77820e-17	
      8999.59480	     6.77958e-17	
      9001.49325	     6.89046e-17	
      9003.39170	     7.26092e-17	
      9005.29015	     7.34825e-17	
      9007.18859	     7.51770e-17	
      9009.08704	     7.54115e-17	
      9010.98549	     7.42354e-17	
      9012.88394	     7.46541e-17	
      9014.78239	     7.43447e-17	
      9016.68084	     7.20552e-17	
      9018.57929	     7.00998e-17	
      9020.47774	     7.00650e-17	
      9022.37619	     6.75812e-17	
      9024.27464	     6.59754e-17	
      9026.17309	     6.36458e-17	
      9028.07154	     6.46736e-17	
      9029.96998	     6.88585e-17	
      9031.86843	     7.23971e-17	
      9033.76688	     7.43028e-17	
      9035.66533	     7.95756e-17	
      9037.56378	     7.78137e-17	
      9039.46223	     7.71425e-17	
      9041.36068	     7.76999e-17	
      9043.25913	     7.42961e-17	
      9045.15758	     7.44289e-17	
      9047.05603	     7.72471e-17	
      9048.95448	     7.74142e-17	
      9050.85293	     7.63976e-17	
      9052.75138	     7.72842e-17	
      9054.64982	     7.55419e-17	
      9056.54827	     7.27861e-17	
      9058.44672	     7.18197e-17	
      9060.34517	     7.12078e-17	
      9062.24362	     7.01470e-17	
      9064.14207	     6.81312e-17	
      9066.04052	     6.64498e-17	
      9067.93897	     6.40424e-17	
      9069.83742	     6.44545e-17	
      9071.73587	     6.57645e-17	
      9073.63432	     6.87865e-17	
      9075.53277	     7.13096e-17	
      9077.43122	     7.22400e-17	
      9079.32966	     7.34611e-17	
      9081.22811	     7.44084e-17	
      9083.12656	     7.54129e-17	
      9085.02501	     7.51085e-17	
      9086.92346	     7.25008e-17	
      9088.82191	     6.82975e-17	
      9090.72036	     7.32426e-17	
      9092.61881	     7.48782e-17	
      9094.51726	     7.60479e-17	
      9096.41571	     7.87567e-17	
      9098.31416	     7.64367e-17	
      9100.21261	     7.93802e-17	
      9102.11106	     8.06204e-17	
      9104.00950	     7.70813e-17	
      9105.90795	     7.62236e-17	
      9107.80640	     7.56406e-17	
      9109.70485	     7.70286e-17	
      9111.60330	     7.86542e-17	
      9113.50175	     8.09634e-17	
      9115.40020	     8.06212e-17	
      9117.29865	     7.91769e-17	
      9119.19710	     8.02386e-17	
      9121.09555	     7.98212e-17	
      9122.99400	     8.16641e-17	
      9124.89245	     8.27501e-17	
      9126.79090	     8.24476e-17	
      9128.68934	     8.07657e-17	
      9130.58779	     7.79578e-17	
      9132.48624	     8.04867e-17	
      9134.38469	     8.26281e-17	
      9136.28314	     8.13072e-17	
      9138.18159	     7.95410e-17	
      9140.08004	     7.48847e-17	
      9141.97849	     7.85353e-17	
      9143.87694	     8.21173e-17	
      9145.77539	     8.06709e-17	
      9147.67384	     8.17445e-17	
      9149.57229	     7.98468e-17	
      9151.47074	     7.95234e-17	
      9153.36918	     8.23880e-17	
      9155.26763	     8.32348e-17	
      9157.16608	     8.51116e-17	
      9159.06453	     8.68246e-17	
      9160.96298	     8.64668e-17	
      9162.86143	     8.38050e-17	
      9164.75988	     8.37674e-17	
      9166.65833	     8.54343e-17	
      9168.55678	     8.85489e-17	
      9170.45523	     8.73470e-17	
      9172.35368	     8.43355e-17	
      9174.25213	     8.46178e-17	
      9176.15058	     8.50242e-17	
      9178.04902	     8.23213e-17	
      9179.94747	     8.60748e-17	
      9181.84592	     8.92659e-17	
      9183.74437	     9.01726e-17	
      9185.64282	     8.99209e-17	
      9187.54127	     9.11580e-17	
      9189.43972	     9.40992e-17	
      9191.33817	     9.60907e-17	
      9193.23662	     9.39296e-17	
      9195.13507	     9.07099e-17	
      9197.03352	     9.23009e-17	
      9198.93197	     9.34309e-17	
      9200.83042	     9.16112e-17	
      9202.72886	     9.31331e-17	
      9204.62731	     9.38761e-17	
      9206.52576	     8.84464e-17	
      9208.42421	     8.13156e-17	
      9210.32266	     8.10979e-17	
      9212.22111	     8.22039e-17	
      9214.11956	     8.20020e-17	
      9216.01801	     8.22963e-17	
      9217.91646	     8.14655e-17	
      9219.81491	     7.95207e-17	
      9221.71336	     8.05738e-17	
      9223.61181	     7.99756e-17	
      9225.51026	     7.95827e-17	
      9227.40870	     8.02009e-17	
      9229.30715	     7.80189e-17	
      9231.20560	     7.66464e-17	
      9233.10405	     7.60301e-17	
      9235.00250	     7.43596e-17	
      9236.90095	     7.34021e-17	
      9238.79940	     7.44760e-17	
      9240.69785	     7.73180e-17	
      9242.59630	     7.74210e-17	
      9244.49475	     7.69931e-17	
      9246.39320	     7.57721e-17	
      9248.29165	     7.27493e-17	
      9250.19010	     7.18316e-17	
      9252.08854	     7.27838e-17	
      9253.98699	     7.52464e-17	
      9255.88544	     7.76483e-17	
      9257.78389	     8.03132e-17	
      9259.68234	     8.47470e-17	
      9261.58079	     8.20788e-17	
      9263.47924	     8.04685e-17	
      9265.37769	     8.30721e-17	
      9267.27614	     8.47335e-17	
      9269.17459	     8.75719e-17	
      9271.07304	     8.57490e-17	
      9272.97149	     8.29306e-17	
      9274.86993	     8.17914e-17	
      9276.76838	     7.53337e-17	
      9278.66683	     7.55635e-17	
      9280.56528	     7.68900e-17	
      9282.46373	     7.91183e-17	
      9284.36218	     8.02536e-17	
      9286.26063	     8.12676e-17	
      9288.15908	     7.97307e-17	
      9290.05753	     7.99852e-17	
      9291.95598	     8.10072e-17	
      9293.85443	     7.98729e-17	
      9295.75288	     7.50281e-17	
      9297.65133	     7.34471e-17	
      9299.54977	     7.13551e-17	
      9301.44822	     7.67365e-17	
      9303.34667	     7.74431e-17	
      9305.24512	     7.87723e-17	
      9307.14357	     7.83457e-17	
      9309.04202	     7.74162e-17	
      9310.94047	     7.34446e-17	
      9312.83892	     7.74879e-17	
      9314.73737	     7.48014e-17	
      9316.63582	     6.75395e-17	
      9318.53427	     6.60908e-17	
      9320.43272	     7.26671e-17	
      9322.33117	     7.23087e-17	
      9324.22961	     6.89471e-17	
      9326.12806	     7.17162e-17	
      9328.02651	     6.99982e-17	
      9329.92496	     6.98658e-17	
      9331.82341	     6.89172e-17	
      9333.72186	     6.85651e-17	
      9335.62031	     6.80184e-17	
      9337.51876	     6.80961e-17	
      9339.41721	     6.45770e-17	
      9341.31566	     5.97141e-17	
      9343.21411	     5.82487e-17	
      9345.11256	     6.57235e-17	
      9347.01101	     7.54457e-17	
      9348.90945	     7.60111e-17	
      9350.80790	     7.42227e-17	
      9352.70635	     7.09758e-17	
      9354.60480	     6.52037e-17	
      9356.50325	     6.80447e-17	
      9358.40170	     7.26350e-17	
      9360.30015	     7.68021e-17	
      9362.19860	     7.68709e-17	
      9364.09705	     7.90589e-17	
      9365.99550	     7.75598e-17	
      9367.89395	     7.13597e-17	
      9369.79240	     7.06790e-17	
      9371.69085	     7.01288e-17	
      9373.58929	     7.43706e-17	
      9375.48774	     7.72230e-17	
      9377.38619	     7.70769e-17	
      9379.28464	     7.22049e-17	
      9381.18309	     6.88791e-17	
      9383.08154	     7.12468e-17	
      9384.97999	     7.49688e-17	
      9386.87844	     7.28702e-17	
      9388.77689	     7.38775e-17	
      9390.67534	     7.89723e-17	
      9392.57379	     8.07290e-17	
      9394.47224	     7.99482e-17	
      9396.37069	     7.84895e-17	
      9398.26913	     7.89359e-17	
      9400.16758	     7.87505e-17	
      9402.06603	     8.13228e-17	
      9403.96448	     8.46418e-17	
      9405.86293	     8.46817e-17	
      9407.76138	     8.41691e-17	
      9409.65983	     8.47040e-17	
      9411.55828	     8.00065e-17	
      9413.45673	     7.65949e-17	
      9415.35518	     7.69039e-17	
      9417.25363	     7.77968e-17	
      9419.15208	     7.67105e-17	
      9421.05053	     7.56601e-17	
      9422.94897	     7.28928e-17	
      9424.84742	     6.90696e-17	
      9426.74587	     7.07779e-17	
      9428.64432	     7.38463e-17	
      9430.54277	     7.50860e-17	
      9432.44122	     7.43217e-17	
      9434.33967	     6.83349e-17	
      9436.23812	     6.52939e-17	
      9438.13657	     6.09920e-17	
      9440.03502	     6.18453e-17	
      9441.93347	     6.96976e-17	
      9443.83192	     7.77892e-17	
      9445.73037	     8.07088e-17	
      9447.62881	     8.34754e-17	
      9449.52726	     8.60592e-17	
      9451.42571	     8.34963e-17	
      9453.32416	     8.20265e-17	
      9455.22261	     7.71349e-17	
      9457.12106	     7.46636e-17	
      9459.01951	     7.42518e-17	
      9460.91796	     7.61231e-17	
      9462.81641	     7.85031e-17	
      9464.71486	     7.96718e-17	
      9466.61331	     8.16166e-17	
      9468.51176	     7.94316e-17	
      9470.41021	     8.04191e-17	
      9472.30865	     7.52301e-17	
      9474.20710	     7.98269e-17	
      9476.10555	     7.54967e-17	
      9478.00400	     6.80299e-17	
      9479.90245	     7.42633e-17	
      9481.80090	     8.06987e-17	
      9483.69935	     8.38333e-17	
      9485.59780	     8.63323e-17	
      9487.49625	     8.70019e-17	
      9489.39470	     8.79217e-17	
      9491.29315	     8.38433e-17	
      9493.19160	     7.85713e-17	
      9495.09005	     7.51300e-17	
      9496.98849	     8.30137e-17	
      9498.88694	     7.94780e-17	
      9500.78539	     7.88925e-17	
      9502.68384	     8.42323e-17	
      9504.58229	     8.59317e-17	
      9506.48074	     8.80691e-17	
      9508.37919	     9.16736e-17	
      9510.27764	     8.76312e-17	
      9512.17609	     8.64651e-17	
      9514.07454	     8.22121e-17	
      9515.97299	     8.18436e-17	
      9517.87144	     7.86431e-17	
      9519.76988	     7.54588e-17	
      9521.66833	     8.12188e-17	
      9523.56678	     8.03013e-17	
      9525.46523	     8.15220e-17	
      9527.36368	     8.70077e-17	
      9529.26213	     9.10622e-17	
      9531.16058	     8.88710e-17	
      9533.05903	     8.85706e-17	
      9534.95748	     8.86628e-17	
      9536.85593	     8.94238e-17	
      9538.75438	     8.84937e-17	
      9540.65283	     8.71876e-17	
      9542.55128	     8.51346e-17	
      9544.44972	     9.20104e-17	
      9546.34817	     9.53252e-17	
      9548.24662	     9.89782e-17	
      9550.14507	     9.87224e-17	
      9552.04352	     9.21122e-17	
      9553.94197	     9.38964e-17	
      9555.84042	     8.90901e-17	
      9557.73887	     8.70323e-17	
      9559.63732	     8.73398e-17	
      9561.53577	     8.34369e-17	
      9563.43422	     8.38485e-17	
      9565.33267	     8.40890e-17	
      9567.23112	     9.05533e-17	
      9569.12956	     9.79340e-17	
      9571.02801	     1.00270e-16	
      9572.92646	     1.03197e-16	
      9574.82491	     9.83982e-17	
      9576.72336	     9.30146e-17	
      9578.62181	     9.18461e-17	
      9580.52026	     9.41570e-17	
      9582.41871	     9.32329e-17	
      9584.31716	     9.12108e-17	
      9586.21561	     8.95400e-17	
      9588.11406	     8.73452e-17	
      9590.01251	     9.03796e-17	
      9591.91096	     9.30571e-17	
      9593.80940	     9.26710e-17	
      9595.70785	     9.43971e-17	
      9597.60630	     8.87428e-17	
      9599.50475	     8.82883e-17	
      9601.40320	     9.03621e-17	
      9603.30165	     9.07936e-17	
      9605.20010	     9.15948e-17	
      9607.09855	     9.41442e-17	
      9608.99700	     9.19531e-17	
      9610.89545	     9.24864e-17	
      9612.79390	     9.74690e-17	
      9614.69235	     9.70572e-17	
      9616.59080	     9.67188e-17	
      9618.48924	     9.67220e-17	
      9620.38769	     9.47986e-17	
      9622.28614	     9.53109e-17	
      9624.18459	     1.00878e-16	
      9626.08304	     9.33203e-17	
      9627.98149	     9.20090e-17	
      9629.87994	     8.67820e-17	
      9631.77839	     8.32967e-17	
      9633.67684	     7.91573e-17	
      9635.57529	     7.81715e-17	
      9637.47374	     7.68983e-17	
      9639.37219	     7.86545e-17	
      9641.27064	     8.23080e-17	
      9643.16908	     8.45444e-17	
      9645.06753	     8.99361e-17	
      9646.96598	     9.10991e-17	
      9648.86443	     9.25155e-17	
      9650.76288	     9.28454e-17	
      9652.66133	     9.25112e-17	
      9654.55978	     9.76684e-17	
      9656.45823	     9.79558e-17	
      9658.35668	     9.29786e-17	
      9660.25513	     9.80108e-17	
      9662.15358	     1.02417e-16	
      9664.05203	     9.89824e-17	
      9665.95048	     1.05597e-16	
      9667.84892	     1.02309e-16	
      9669.74737	     1.04982e-16	
      9671.64582	     1.00843e-16	
      9673.54427	     9.76181e-17	
      9675.44272	     9.53891e-17	
      9677.34117	     9.18745e-17	
      9679.23962	     9.27991e-17	
      9681.13807	     9.75620e-17	
      9683.03652	     9.85953e-17	
      9684.93497	     9.77529e-17	
      9686.83342	     1.01027e-16	
      9688.73187	     9.93533e-17	
      9690.63032	     9.59794e-17	
      9692.52876	     9.15330e-17	
      9694.42721	     9.36630e-17	
      9696.32566	     9.91414e-17	
      9698.22411	     9.73733e-17	
      9700.12256	     9.75081e-17	
      9702.02101	     9.21043e-17	
      9703.91946	     8.84936e-17	
      9705.81791	     8.88690e-17	
      9707.71636	     8.95038e-17	
      9709.61481	     9.05275e-17	
      9711.51326	     9.53391e-17	
      9713.41171	     9.51079e-17	
      9715.31016	     9.96142e-17	
      9717.20860	     1.00549e-16	
      9719.10705	     9.18398e-17	
      9721.00550	     9.74805e-17	
      9722.90395	     1.00547e-16	
      9724.80240	     1.09300e-16	
      9726.70085	     1.04796e-16	
      9728.59930	     1.01002e-16	
      9730.49775	     9.16271e-17	
      9732.39620	     9.42886e-17	
      9734.29465	     1.00460e-16	
      9736.19310	     9.88376e-17	
      9738.09155	     1.01695e-16	
      9739.98999	     1.04050e-16	
      9741.88844	     9.64643e-17	
      9743.78689	     9.32513e-17	
      9745.68534	     9.36381e-17	
      9747.58379	     8.91686e-17	
      9749.48224	     8.70734e-17	
      9751.38069	     8.80598e-17	
      9753.27914	     9.06343e-17	
      9755.17759	     9.00003e-17	
      9757.07604	     9.46984e-17	
      9758.97449	     9.49620e-17	
      9760.87294	     9.22743e-17	
      9762.77139	     9.46550e-17	
      9764.66983	     9.72655e-17	
      9766.56828	     1.00630e-16	
      9768.46673	     1.01268e-16	
      9770.36518	     9.67058e-17	
      9772.26363	     9.53281e-17	
      9774.16208	     9.71491e-17	
      9776.06053	     9.74850e-17	
      9777.95898	     9.54096e-17	
      9779.85743	     9.70193e-17	
      9781.75588	     9.37505e-17	
      9783.65433	     8.85767e-17	
      9785.55278	     9.75736e-17	
      9787.45123	     1.10613e-16	
      9789.34967	     1.15598e-16	
      9791.24812	     1.15550e-16	
      9793.14657	     1.12899e-16	
      9795.04502	     1.03442e-16	
      9796.94347	     1.05956e-16	
      9798.84192	     1.08927e-16	
      9800.74037	     1.01135e-16	
      9802.63882	     1.01926e-16	
      9804.53727	     1.05027e-16	
      9806.43572	     1.09252e-16	
      9808.33417	     1.07753e-16	
      9810.23262	     1.00199e-16	
      9812.13107	     1.00692e-16	
      9814.02951	     9.92773e-17	
      9815.92796	     9.77717e-17	
      9817.82641	     9.82894e-17	
      9819.72486	     9.97923e-17	
      9821.62331	     9.90526e-17	
      9823.52176	     9.57411e-17	
      9825.42021	     9.75808e-17	
      9827.31866	     9.86281e-17	
      9829.21711	     9.40858e-17	
      9831.11556	     9.48346e-17	
      9833.01401	     9.98620e-17	
      9834.91246	     9.96887e-17	
      9836.81091	     9.63243e-17	
      9838.70935	     9.80925e-17	
      9840.60780	     9.84508e-17	
      9842.50625	     1.01184e-16	
      9844.40470	     1.12698e-16	
      9846.30315	     1.08109e-16	
      9848.20160	     1.12607e-16	
      9850.10005	     1.09864e-16	
      9851.99850	     1.07576e-16	
      9853.89695	     1.08339e-16	
      9855.79540	     1.09065e-16	
      9857.69385	     1.14020e-16	
      9859.59230	     1.22473e-16	
      9861.49075	     1.15479e-16	
      9863.38919	     1.13845e-16	
      9865.28764	     1.21914e-16	
      9867.18609	     1.11860e-16	
      9869.08454	     1.12448e-16	
      9870.98299	     1.06697e-16	
      9872.88144	     1.11605e-16	
      9874.77989	     1.16568e-16	
      9876.67834	     1.05818e-16	
      9878.57679	     1.12239e-16	
      9880.47524	     1.11508e-16	
      9882.37369	     1.10503e-16	
      9884.27214	     1.07324e-16	
      9886.17059	     1.08794e-16	
      9888.06903	     1.12969e-16	
      9889.96748	     1.07061e-16	
      9891.86593	     1.08745e-16	
      9893.76438	     1.03564e-16	
      9895.66283	     9.58777e-17	
      9897.56128	     8.87927e-17	
      9899.45973	     8.36057e-17	
      9901.35818	     9.17545e-17	
      9903.25663	     8.06488e-17	
      9905.15508	     7.62776e-17	
      9907.05353	     7.04218e-17	
      9908.95198	     6.70928e-17	
      9910.85043	     6.61851e-17	
      9912.74887	     6.40270e-17	
      9914.64732	     6.37660e-17	
      9916.54577	     6.19018e-17	
      9918.44422	     6.81363e-17	
      9920.34267	     6.87003e-17	
      9922.24112	     6.76821e-17	
      9924.13957	     7.56501e-17	
      9926.03802	     6.91157e-17	
      9927.93647	     6.89925e-17	
      9929.83492	     7.96042e-17	
      9931.73337	     8.04608e-17	
      9933.63182	     8.04571e-17	
      9935.53027	     8.63567e-17	
      9937.42871	     8.45739e-17	
      9939.32716	     9.27385e-17	
      9941.22561	     9.17914e-17	
      9943.12406	     1.01999e-16	
      9945.02251	     1.11545e-16	
      9946.92096	     9.60495e-17	
      9948.81941	     1.03694e-16	
      9950.71786	     1.09469e-16	
      9952.61631	     1.00616e-16	
      9954.51476	     1.00015e-16	
      9956.41321	     9.90326e-17	
      9958.31166	     9.08879e-17	
      9960.21011	     8.62705e-17	
      9962.10855	     8.77758e-17	
      9964.00700	     9.54953e-17	
      9965.90545	     1.00743e-16	
      9967.80390	     9.22533e-17	
      9969.70235	     8.58178e-17	
      9971.60080	     8.47279e-17	
      9973.49925	     8.66747e-17	
      9975.39770	     9.04941e-17	
      9977.29615	     9.42642e-17	
      9979.19460	     8.79911e-17	
      9981.09305	     9.20448e-17	
      9982.99150	     9.13535e-17	
      9984.88994	     9.15412e-17	
      9986.78839	     9.56497e-17	
      9988.68684	     9.19606e-17	
      9990.58529	     9.58081e-17	
      9992.48374	     9.41739e-17	
      9994.38219	     9.32791e-17	
      9996.28064	     9.62024e-17	
      9998.17909	     1.03226e-16	
     10000.07754	     1.06174e-16	
     10001.97599	     1.02375e-16	
     10003.87444	     1.06490e-16	
     10005.77289	     1.11060e-16	
     10007.67134	     1.12326e-16	
     10009.56978	     1.03793e-16	
     10011.46823	     9.10718e-17	
     10013.36668	     1.02691e-16	
     10015.26513	     1.03576e-16	
     10017.16358	     1.06974e-16	
     10019.06203	     1.10554e-16	
     10020.96048	     9.86044e-17	
     10022.85893	     1.04047e-16	
     10024.75738	     1.02165e-16	
     10026.65583	     9.50948e-17	
     10028.55428	     1.01222e-16	
     10030.45273	     1.03840e-16	
     10032.35118	     9.94184e-17	
     10034.24962	     9.23482e-17	
     10036.14807	     1.03306e-16	
     10038.04652	     1.00408e-16	
     10039.94497	     1.07601e-16	
     10041.84342	     1.15139e-16	
     10043.74187	     1.17618e-16	
     10045.64032	     1.05774e-16	
     10047.53877	     1.07250e-16	
     10049.43722	     1.02554e-16	
     10051.33567	     1.03526e-16	
     10053.23412	     1.01388e-16	
     10055.13257	     9.08085e-17	
     10057.03102	     9.00874e-17	
     10058.92946	     8.19597e-17	
     10060.82791	     8.84213e-17	
     10062.72636	     8.51812e-17	
     10064.62481	     1.02938e-16	
     10066.52326	     9.73647e-17	
     10068.42171	     1.08720e-16	
     10070.32016	     1.01525e-16	
     10072.21861	     1.04335e-16	
     10074.11706	     9.53165e-17	
     10076.01551	     1.06042e-16	
     10077.91396	     1.28232e-16	
     10079.81241	     1.11217e-16	
     10081.71086	     1.11654e-16	
     10083.60930	     1.10122e-16	
     10085.50775	     1.21844e-16	
     10087.40620	     1.25532e-16	
     10089.30465	     1.07172e-16	
     10091.20310	     9.88150e-17	
     10093.10155	     1.02024e-16	
     10095.00000	     1.01253e-16	
#time:0.039538
